File: data/03_maps/xrf/BA_powders_map_refocused_2482_5_001.dat
* Abscissa points :   151
* Ordinate points :   180
* BLANK LINE
* Data Channels :   15
* Data Labels : I0	I1	S.Ka	Na.Ka	Mg.Ka	Al.Ka	Si.Ka	P.Ka	Cl.Ka	ICR	OCR	TIME	I0STRM	I1STRM	LASER
* Comments:
* dwell time = 10.0
*
*
* BLANK LINE
* Abscissa points requested :
* 10.5013	10.4013	10.3013	10.2013	10.1013	10.0013	9.9013	9.8013	9.7013	9.6013	9.5013	9.4013	9.3013	9.2013	9.1013	9.0013	8.9013	8.8013	8.7013	8.6013	8.5013	8.4013	8.3013	8.2013	8.1013	8.0013	7.9013	7.8013	7.7013	7.6013	7.5013	7.4013	7.3013	7.2013	7.1013	7.0013	6.9013	6.8013	6.7013	6.6013	6.5013	6.4013	6.3013	6.2013	6.1013	6.0013	5.9013	5.8013	5.7013	5.6013	5.5013	5.4013	5.3013	5.2013	5.1013	5.0013	4.9013	4.8013	4.7013	4.6013	4.5013	4.4013	4.3013	4.2013	4.1013	4.0013	3.9013	3.8013	3.7013	3.6013	3.5013	3.4013	3.3013	3.2013	3.1013	3.0013	2.9013	2.8013	2.7013	2.6013	2.5013	2.4013	2.3013	2.2013	2.1013	2.0013	1.9013	1.8013	1.7013	1.6013	1.5013	1.4013	1.3013	1.2013	1.1013	1.0013	0.9013	0.8013	0.7013	0.6013	0.5013	0.4013	0.3013	0.2013	0.1013	0.0013	-0.0987	-0.1987	-0.2987	-0.3987	-0.4987	-0.5987	-0.6987	-0.7987	-0.8987	-0.9987	-1.0987	-1.1987	-1.2987	-1.3987	-1.4987	-1.5987	-1.6987	-1.7987	-1.8987	-1.9987	-2.0987	-2.1987	-2.2987	-2.3987	-2.4987	-2.5987	-2.6987	-2.7987	-2.8987	-2.9987	-3.0987	-3.1987	-3.2987	-3.3987	-3.4987	-3.5987	-3.6987	-3.7987	-3.8987	-3.9987	-4.0987	-4.1987	-4.2987	-4.3987	-4.4987
* BLANK LINE
* BLANK LINE
* Ordinate points requested :
* -11.0095	-10.9095	-10.8095	-10.7095	-10.6095	-10.5095	-10.4095	-10.3095	-10.2095	-10.1095	-10.0095	-9.9095	-9.8095	-9.7095	-9.6095	-9.5095	-9.4095	-9.3095	-9.2095	-9.1095	-9.0095	-8.9095	-8.8095	-8.7095	-8.6095	-8.5095	-8.4095	-8.3095	-8.2095	-8.1095	-8.0095	-7.9095	-7.8095	-7.7095	-7.6095	-7.5095	-7.4095	-7.3095	-7.2095	-7.1095	-7.0095	-6.9095	-6.8095	-6.7095	-6.6095	-6.5095	-6.4095	-6.3095	-6.2095	-6.1095	-6.0095	-5.9095	-5.8095	-5.7095	-5.6095	-5.5095	-5.4095	-5.3095	-5.2095	-5.1095	-5.0095	-4.9095	-4.8095	-4.7095	-4.6095	-4.5095	-4.4095	-4.3095	-4.2095	-4.1095	-4.0095	-3.9095	-3.8095	-3.7095	-3.6095	-3.5095	-3.4095	-3.3095	-3.2095	-3.1095	-3.0095	-2.9095	-2.8095	-2.7095	-2.6095	-2.5095	-2.4095	-2.3095	-2.2095	-2.1095	-2.0095	-1.9095	-1.8095	-1.7095	-1.6095	-1.5095	-1.4095	-1.3095	-1.2095	-1.1095	-1.0095	-0.9095	-0.8095	-0.7095	-0.6095	-0.5095	-0.4095	-0.3095	-0.2095	-0.1095	0.01	0.0905	0.1905	0.2905	0.3905	0.4905	0.5905	0.6905	0.7905	0.8905	0.9905	1.0905	1.1905	1.2905	1.3905	1.4905	1.5905	1.6905	1.7905	1.8905	1.9905	2.0905	2.1905	2.2905	2.3905	2.4905	2.5905	2.6905	2.7905	2.8905	2.9905	3.0905	3.1905	3.2905	3.3905	3.4905	3.5905	3.6905	3.7905	3.8905	3.9905	4.0905	4.1905	4.2905	4.3905	4.4905	4.5905	4.6905	4.7905	4.8905	4.9905	5.0905	5.1905	5.2905	5.3905	5.4905	5.5905	5.6905	5.7905	5.8905	5.9905	6.0905	6.1905	6.2905	6.3905	6.4905	6.5905	6.6905	6.7905	6.8905
* BLANK LINE
* BLANK LINE
* Energy points requested:
*   2482.5
* BLANK LINE
* DATA
-11.0095	10.5013	1	1	9407	304	90	321	1228	1523	6598	1303673	917422	983058784	10	10	10
-10.9095	9.0013	1	1	43	2	5	28	103	137	8	3078	2339	2858736	0	0	0
-10.8095	7.5013	1	1	38	3	1	6	18	26	35	3874	2716	2885988	0	0	0
-10.7095	6.0013	1	1	42	1	12	50	206	147	11	5735	4035	2887792	0	0	0
-10.6095	4.5013	1	1	22	2	0	4	16	9	17	3849	2642	2885528	0	0	0
-10.5095	3.0013	1	1	20	2	4	42	167	142	6	4487	3273	2890996	0	0	0
-10.4095	1.5013	1	1	27	1	0	18	77	68	25	4525	3292	2887444	0	0	0
-10.3095	0.0013	1	1	35	1	0	0	3	7	34	3052	2177	2863624	0	0	0
-10.2095	-1.4987	1	1	46	2	0	1	7	12	20	5242	3531	2860756	0	0	0
-10.1095	-2.9987	1	1	47	0	0	0	12	13	21	2421	1772	2858904	0	0	0
-10.0095	-4.4987	1	1	0	0	0	0	0	0	0	0	0	0	0	0	0
-9.8095	9.1013	1	1	32	2	1	2	3	4	22	4775	3164	2888052	0	0	0
-9.7095	7.6013	1	1	29	1	0	1	6	3	32	2975	2221	2899516	0	0	0
-9.6095	6.1013	1	1	30	1	5	28	187	159	6	4714	3296	2898100	0	0	0
-9.5095	4.6013	1	1	21	0	2	4	12	7	12	3330	2395	2897584	0	0	0
-9.4095	3.1013	1	1	9	2	2	29	135	105	13	3431	2440	2888404	0	0	0
-9.3095	1.6013	1	1	39	2	1	1	7	6	32	5462	3684	2879772	0	0	0
-9.2095	0.1013	1	1	39	1	0	3	17	20	20	3491	2415	2887508	0	0	0
-9.1095	-1.3987	1	1	38	1	1	0	6	11	27	4829	3327	2882168	0	0	0
-9.0095	-2.8987	1	1	35	1	0	0	1	2	39	4448	3014	2885796	0	0	0
-8.9095	-4.3987	1	1	7	0	0	0	0	0	5	0	0	0	0	0	0
-8.7095	9.2013	1	1	25	2	4	21	127	99	7	5620	3668	2870184	0	0	0
-8.6095	7.7013	1	1	23	1	0	10	33	24	13	3114	2130	2883220	0	0	0
-8.5095	6.2013	1	1	25	1	0	0	2	4	20	3315	2261	2886248	0	0	0
-8.4095	4.7013	1	1	39	1	0	1	7	2	34	4242	2931	2867068	0	0	0
-8.3095	3.2013	1	1	43	1	0	4	18	13	30	3058	2218	2873968	0	0	0
-8.2095	1.7013	1	1	61	2	0	1	15	9	34	4780	3302	2863036	0	0	0
-8.1095	0.2013	1	1	35	1	2	9	30	22	21	4382	3083	2856800	0	0	0
-8.0095	-1.2987	1	1	26	0	0	0	11	3	29	2867	1999	2865544	0	0	0
-7.9095	-2.7987	1	1	26	2	1	0	18	14	26	4983	3561	2880124	0	0	0
-7.8095	-4.2987	1	1	41	2	0	0	4	2	23	1663	1684	1438734	0	0	0
-7.6095	9.3013	1	1	16	1	1	34	159	127	8	5730	3950	2885512	0	0	0
-7.5095	7.8013	1	1	31	2	1	9	56	60	23	4301	3127	2881916	0	0	0
-7.4095	6.3013	1	1	44	0	0	2	19	9	25	4180	2947	2883548	0	0	0
-7.3095	4.8013	1	1	30	4	0	0	34	20	23	4430	2993	2865784	0	0	0
-7.2095	3.3013	1	1	35	1	1	8	24	45	21	3977	2978	2868484	0	0	0
-7.1095	1.8013	1	1	57	1	1	28	119	121	9	4917	3339	2871108	0	0	0
-7.0095	0.3013	1	1	40	1	1	5	8	10	17	3153	2202	2889028	0	0	0
-6.9095	-1.1987	1	1	39	2	2	1	8	5	22	3870	2783	2899424	0	0	0
-6.8095	-2.6987	1	1	36	1	0	0	4	4	39	3889	2635	2896892	0	0	0
-6.7095	-4.1987	1	1	16	2	0	7	48	44	14	3240	2176	2165319	0	0	0
-6.5095	9.4013	1	1	13	4	6	37	181	156	12	5352	3710	2843204	0	0	0
-6.4095	7.9013	1	1	34	3	3	24	130	77	12	5526	3933	2864336	0	0	0
-6.3095	6.4013	1	1	67	4	5	28	94	88	4	4368	3175	2858704	0	0	0
-6.2095	4.9013	1	1	86	5	3	33	103	81	13	4467	3123	2860876	0	0	0
-6.1095	3.4013	1	1	41	2	1	9	21	21	25	4806	3365	2877332	0	0	0
-6.0095	1.9013	1	1	76	0	3	26	103	141	7	3764	2715	2889936	0	0	0
-5.9095	0.4013	1	1	51	0	2	13	48	48	20	3466	2436	2898172	0	0	0
-5.8095	-1.0987	1	1	36	1	0	1	29	36	33	4605	3262	2869784	0	0	0
-5.7095	-2.5987	1	1	39	3	0	0	5	7	31	3678	2518	2875804	0	0	0
-5.6095	-4.0987	1	1	33	0	1	4	46	32	15	4021	1854	2154927	0	0	0
-5.4095	9.5013	1	1	16	2	5	28	141	110	4	4233	3094	2818992	0	0	0
-5.3095	8.0013	1	1	26	1	4	31	90	83	21	4715	3226	2862436	0	0	0
-5.2095	6.5013	1	1	169	0	2	25	74	64	17	3271	2353	2860404	0	0	0
-5.1095	5.0013	1	1	55	2	4	22	96	82	10	3515	2406	2888976	0	0	0
-5.0095	3.5013	1	1	29	1	0	1	9	7	18	2839	2048	2891096	0	0	0
-4.9095	2.0013	1	1	72	3	2	33	154	112	8	2971	2239	2881036	0	0	0
-4.8095	0.5013	1	1	47	2	3	9	48	56	25	3452	2509	2871360	0	0	0
-4.7095	-0.9987	1	1	34	0	0	0	3	4	29	4296	3117	2870788	0	0	0
-4.6095	-2.4987	1	1	46	2	0	0	9	4	34	3680	2602	2871200	0	0	0
-4.5095	-3.9987	1	1	63	3	0	2	8	7	34	4395	3066	2871304	0	0	0
-4.3095	9.6013	1	1	41	3	1	2	10	10	38	4572	3133	2830660	0	0	0
-4.2095	8.1013	1	1	32	0	0	2	14	10	32	3755	2643	2895132	0	0	0
-4.1095	6.6013	1	1	44	1	2	2	9	15	27	3968	2808	2913248	0	0	0
-4.0095	5.1013	1	1	29	0	0	0	3	8	13	3055	2157	2903824	0	0	0
-3.9095	3.6013	1	1	25	2	0	4	11	9	17	3891	2596	2893624	0	0	0
-3.8095	2.1013	1	1	52	2	2	25	89	97	8	4267	2996	2892596	0	0	0
-3.7095	0.6013	1	1	49	2	2	17	44	50	20	4688	3334	2893348	0	0	0
-3.6095	-0.8987	1	1	48	3	0	0	2	5	28	4288	3029	2893224	0	0	0
-3.5095	-2.3987	1	1	38	1	0	0	1	2	33	3524	2492	2894864	0	0	0
-3.4095	-3.8987	1	1	42	0	1	0	4	4	25	5649	3809	2906844	0	0	0
-3.2095	9.7013	1	1	24	2	0	1	5	7	19	3277	2402	2823152	0	0	0
-3.1095	8.2013	1	1	34	3	3	28	134	136	17	4140	3154	2890264	0	0	0
-3.0095	6.7013	1	1	36	4	2	15	87	49	16	3407	2473	2879904	0	0	0
-2.9095	5.2013	1	1	39	1	0	0	4	1	17	5061	3544	2868920	0	0	0
-2.8095	3.7013	1	1	34	1	1	4	5	7	23	3461	2480	2871856	0	0	0
-2.7095	2.2013	1	1	31	0	0	4	9	2	21	3731	2656	2870164	0	0	0
-2.6095	0.7013	1	1	38	1	0	1	3	7	17	4689	3269	2860040	0	0	0
-2.5095	-0.7987	1	1	35	0	0	0	6	6	28	2675	1938	2867812	0	0	0
-2.4095	-2.2987	1	1	46	1	1	5	42	32	22	2955	2209	2874260	0	0	0
-2.3095	-3.7987	1	1	50	0	0	0	7	4	36	4731	3343	2873000	0	0	0
-2.1095	9.8013	1	1	37	2	0	11	40	40	23	4584	3243	2809624	0	0	0
-2.0095	8.3013	1	1	33	1	4	31	141	117	6	4048	3026	2881240	0	0	0
-1.9095	6.8013	1	1	26	1	1	20	119	109	11	4429	3135	2882108	0	0	0
-1.8095	5.3013	1	1	26	1	0	4	23	30	26	4175	2892	2890816	0	0	0
-1.7095	3.8013	1	1	72	3	2	22	76	55	12	4227	2967	2872532	0	0	0
-1.6095	2.3013	1	1	33	3	0	1	0	6	23	4433	3216	2879312	0	0	0
-1.5095	0.8013	1	1	41	5	2	13	53	46	22	3462	2545	2887576	0	0	0
-1.4095	-0.6987	1	1	43	0	0	2	12	7	22	4248	2934	2891892	0	0	0
-1.3095	-2.1987	1	1	38	0	1	3	17	11	16	3814	2743	2886664	0	0	0
-1.2095	-3.6987	1	1	47	0	0	1	9	10	29	4350	2969	2897044	0	0	0
-1.0095	9.9013	1	1	30	0	1	4	37	32	19	4376	3226	2762052	0	0	0
-0.9095	8.4013	1	1	28	1	0	25	110	106	12	2855	2116	2881692	0	0	0
-0.8095	6.9013	1	1	27	2	5	44	146	144	12	5174	3812	2865560	0	0	0
-0.7095	5.4013	1	1	57	1	0	10	47	46	22	3699	2616	2871348	0	0	0
-0.6095	3.9013	1	1	72	0	4	37	142	111	4	3124	2258	2880612	0	0	0
-0.5095	2.4013	1	1	57	1	0	16	59	54	17	4927	3316	2892764	0	0	0
-0.4095	0.9013	1	1	20	2	0	15	48	78	6	3347	2480	2875612	0	0	0
-0.3095	-0.5987	1	1	38	2	0	24	105	101	6	3340	2470	2883164	0	0	0
-0.2095	-2.0987	1	1	39	2	0	2	8	2	37	3288	2244	2875164	0	0	0
-0.1095	-3.5987	1	1	41	1	1	4	93	64	17	3999	2720	2865044	0	0	0
0.0905	10.0013	1	1	31	2	0	9	47	46	12	3115	2148	2781496	0	0	0
0.1905	8.5013	1	1	38	4	7	33	195	137	10	4655	3344	2869036	0	0	0
0.2905	7.0013	1	1	31	0	2	17	115	89	13	4848	3458	2875120	0	0	0
0.3905	5.5013	1	1	32	0	0	1	21	32	11	3317	2373	2884232	0	0	0
0.4905	4.0013	1	1	89	2	6	27	157	122	14	4621	3202	2873724	0	0	0
0.5905	2.5013	1	1	57	3	3	29	114	83	13	4091	2806	2871320	0	0	0
0.6905	1.0013	1	1	38	0	2	19	90	62	11	3790	2722	2878240	0	0	0
0.7905	-0.4987	1	1	39	1	3	29	110	87	5	4471	3191	2864844	0	0	0
0.8905	-1.9987	1	1	43	0	0	2	1	1	33	3055	2262	2854484	0	0	0
0.9905	-3.4987	1	1	33	0	0	1	6	5	17	3640	2603	2866620	0	0	0
1.1905	10.1013	1	1	49	0	0	12	64	35	24	5953	4169	2878996	0	0	0
1.2905	8.6013	1	1	27	3	4	28	114	101	16	4245	3106	2899228	0	0	0
1.3905	7.1013	1	1	35	2	0	0	0	4	24	3231	2315	2896600	0	0	0
1.4905	5.6013	1	1	31	0	0	0	5	5	24	4720	3362	2891108	0	0	0
1.5905	4.1013	1	1	50	4	1	18	84	100	12	3952	2959	2890964	0	0	0
1.6905	2.6013	1	1	43	2	0	10	29	19	23	4546	3224	2893984	0	0	0
1.7905	1.1013	1	1	21	0	3	16	48	46	11	4143	2937	2887196	0	0	0
1.8905	-0.3987	1	1	48	4	4	20	134	135	4	5182	3761	2891444	0	0	0
1.9905	-1.8987	1	1	33	1	0	0	2	2	29	3250	2347	2901664	0	0	0
2.0905	-3.3987	1	1	56	5	0	1	13	9	33	5661	4030	2902040	0	0	0
2.2905	10.2013	1	1	44	2	0	1	3	6	17	3755	2485	3062032	0	0	0
2.3905	8.7013	1	1	43	2	0	5	12	6	25	4249	2879	2867988	0	0	0
2.4905	7.2013	1	1	48	0	1	1	3	3	29	3549	2479	2873428	0	0	0
2.5905	5.7013	1	1	53	1	0	1	2	3	23	3749	2624	2874780	0	0	0
2.6905	4.2013	1	1	32	1	0	0	1	4	21	4075	2959	2861080	0	0	0
2.7905	2.7013	1	1	35	0	0	0	1	2	28	4417	3145	2858024	0	0	0
2.8905	1.2013	1	1	38	1	1	6	31	16	21	4266	3067	2877192	0	0	0
2.9905	-0.2987	1	1	31	0	2	20	63	66	16	3524	2627	2868508	0	0	0
3.0905	-1.7987	1	1	35	1	0	0	2	7	32	4346	3078	2875964	0	0	0
3.1905	-3.2987	1	1	35	1	1	4	4	14	29	3290	2385	2862044	0	0	0
3.3905	10.3013	1	1	69	2	0	0	3	8	37	3897	2808	3411656	0	0	0
3.4905	8.8013	1	1	38	2	1	0	3	5	26	4432	3206	2883632	0	0	0
3.5905	7.3013	1	1	33	1	0	0	2	5	17	4206	2970	2882568	0	0	0
3.6905	5.8013	1	1	40	0	0	1	15	13	22	3300	2337	2866376	0	0	0
3.7905	4.3013	1	1	41	1	1	0	3	8	22	3976	2857	2873436	0	0	0
3.8905	2.8013	1	1	27	0	2	17	35	36	9	4095	2878	2878824	0	0	0
3.9905	1.3013	1	1	27	0	0	0	3	2	32	4388	2961	2889536	0	0	0
4.0905	-0.1987	1	1	40	3	0	0	7	3	25	5098	3459	2897568	0	0	0
4.1905	-1.6987	1	1	19	2	1	26	137	115	6	5192	3675	2907068	0	0	0
4.2905	-3.1987	1	1	39	0	4	21	85	61	26	4426	3076	2905348	0	0	0
4.4905	10.4013	1	1	100	2	7	22	114	87	19	7772	5349	3898760	0	0	0
4.5905	8.9013	1	1	34	0	1	2	8	4	25	4107	2890	2856028	0	0	0
4.6905	7.4013	1	1	59	1	2	13	40	52	27	5037	3645	2870096	0	0	0
4.7905	5.9013	1	1	52	0	0	0	7	6	23	3586	2568	2875956	0	0	0
4.8905	4.4013	1	1	45	0	0	3	9	13	35	3244	2293	2877040	0	0	0
4.9905	2.9013	1	1	36	4	1	8	39	32	17	4967	3192	2892564	0	0	0
5.0905	1.4013	1	1	40	1	1	8	40	32	20	4419	3085	2892016	0	0	0
5.1905	-0.0987	1	1	39	3	1	1	4	8	50	3560	2736	2888920	0	0	0
5.2905	-1.5987	1	1	30	1	3	31	135	117	6	3883	2701	2877304	0	0	0
5.3905	-3.0987	1	1	35	2	2	40	182	134	10	3494	2734	2862568	0	0	0
5.5905	10.5013	1	1	34416	970	1713	13615	57208	50483	3394	1586394	1138870	957386572	10	10	10
5.6905	9.0013	1	1	38	0	0	2	4	5	33	3427	2272	2859856	0	0	0
5.7905	7.5013	1	1	65	0	2	28	130	93	10	4163	2822	2882156	0	0	0
5.8905	6.0013	1	1	63	4	0	22	111	61	17	4096	2770	2890176	0	0	0
5.9905	4.5013	1	1	31	1	0	1	15	8	10	5295	3592	2871064	0	0	0
6.0905	3.0013	1	1	60	2	7	27	123	126	7	4159	3092	2893980	0	0	0
6.1905	1.5013	1	1	37	1	0	0	4	2	21	3404	2444	2881948	0	0	0
6.2905	0.0013	1	1	36	1	0	1	12	15	18	4438	3053	2864336	0	0	0
6.3905	-1.4987	1	1	24	3	4	24	107	108	6	4275	3196	2861660	0	0	0
6.4905	-2.9987	1	1	34	1	1	34	116	141	5	3545	2386	2856596	0	0	0
6.5905	-4.4987	1	1	0	0	0	0	0	0	0	0	0	713302	0	0	0
6.7905	9.1013	1	1	40	2	1	1	1	2	14	5089	3428	2890196	0	0	0
6.8905	7.6013	1	1	86	2	3	29	122	96	15	5904	4079	2903240	0	0	0
6.8905	-4.4987	1	1	0	0	0	0	0	0	0	0	0	0	0	0	0