File: data/03_maps/xrf/BA_powders_map_2482_5_001.dat
* Abscissa points :   138
* Ordinate points :   180
* BLANK LINE
* Data Channels :   15
* Data Labels : I0	I1	S.Ka	Na.Ka	Mg.Ka	Al.Ka	Si.Ka	P.Ka	Cl.Ka	ICR	OCR	TIME	I0STRM	I1STRM	LASER
* Comments:
* dwell time = 10.0
*
*
* BLANK LINE
* Abscissa points requested :
* 9.1785	9.0785	8.9785	8.8785	8.7785	8.6785	8.5785	8.4785	8.3785	8.2785	8.1785	8.0785	7.9785	7.8785	7.7785	7.6785	7.5785	7.4785	7.3785	7.2785	7.1785	7.0785	6.9785	6.8785	6.7785	6.6785	6.5785	6.4785	6.3785	6.2785	6.1785	6.0785	5.9785	5.8785	5.7785	5.6785	5.5785	5.4785	5.3785	5.2785	5.1785	5.0785	4.9785	4.8785	4.7785	4.6785	4.5785	4.4785	4.3785	4.2785	4.1785	4.0785	3.9785	3.8785	3.7785	3.6785	3.5785	3.4785	3.3785	3.2785	3.1785	3.0785	2.9785	2.8785	2.7785	2.6785	2.5785	2.4785	2.3785	2.2785	2.1785	2.0785	1.9785	1.8785	1.7785	1.6785	1.5785	1.4785	1.3785	1.2785	1.1785	1.0785	0.9785	0.8785	0.7785	0.6785	0.5785	0.4785	0.3785	0.2785	0.1785	0.0785	-0.0215	-0.1215	-0.2215	-0.3215	-0.4215	-0.5215	-0.6215	-0.7215	-0.8215	-0.9215	-1.0215	-1.1215	-1.2215	-1.3215	-1.4215	-1.5215	-1.6215	-1.7215	-1.8215	-1.9215	-2.0215	-2.1215	-2.2215	-2.3215	-2.4215	-2.5215	-2.6215	-2.7215	-2.8215	-2.9215	-3.0215	-3.1215	-3.2215	-3.3215	-3.4215	-3.5215	-3.6215	-3.7215	-3.8215	-3.9215	-4.0215	-4.1215	-4.2215	-4.3215	-4.4215	-4.5215
* BLANK LINE
* BLANK LINE
* Ordinate points requested :
* -11.0095	-10.9095	-10.8095	-10.7095	-10.6095	-10.5095	-10.4095	-10.3095	-10.2095	-10.1095	-10.0095	-9.9095	-9.8095	-9.7095	-9.6095	-9.5095	-9.4095	-9.3095	-9.2095	-9.1095	-9.0095	-8.9095	-8.8095	-8.7095	-8.6095	-8.5095	-8.4095	-8.3095	-8.2095	-8.1095	-8.0095	-7.9095	-7.8095	-7.7095	-7.6095	-7.5095	-7.4095	-7.3095	-7.2095	-7.1095	-7.0095	-6.9095	-6.8095	-6.7095	-6.6095	-6.5095	-6.4095	-6.3095	-6.2095	-6.1095	-6.0095	-5.9095	-5.8095	-5.7095	-5.6095	-5.5095	-5.4095	-5.3095	-5.2095	-5.1095	-5.0095	-4.9095	-4.8095	-4.7095	-4.6095	-4.5095	-4.4095	-4.3095	-4.2095	-4.1095	-4.0095	-3.9095	-3.8095	-3.7095	-3.6095	-3.5095	-3.4095	-3.3095	-3.2095	-3.1095	-3.0095	-2.9095	-2.8095	-2.7095	-2.6095	-2.5095	-2.4095	-2.3095	-2.2095	-2.1095	-2.0095	-1.9095	-1.8095	-1.7095	-1.6095	-1.5095	-1.4095	-1.3095	-1.2095	-1.1095	-1.0095	-0.9095	-0.8095	-0.7095	-0.6095	-0.5095	-0.4095	-0.3095	-0.2095	-0.1095	0.01	0.0905	0.1905	0.2905	0.3905	0.4905	0.5905	0.6905	0.7905	0.8905	0.9905	1.0905	1.1905	1.2905	1.3905	1.4905	1.5905	1.6905	1.7905	1.8905	1.9905	2.0905	2.1905	2.2905	2.3905	2.4905	2.5905	2.6905	2.7905	2.8905	2.9905	3.0905	3.1905	3.2905	3.3905	3.4905	3.5905	3.6905	3.7905	3.8905	3.9905	4.0905	4.1905	4.2905	4.3905	4.4905	4.5905	4.6905	4.7905	4.8905	4.9905	5.0905	5.1905	5.2905	5.3905	5.4905	5.5905	5.6905	5.7905	5.8905	5.9905	6.0905	6.1905	6.2905	6.3905	6.4905	6.5905	6.6905	6.7905	6.8905
* BLANK LINE
* BLANK LINE
* Energy points requested:
*   2482.5
* BLANK LINE
* DATA
-11.0095	9.1785	1	1	26193	910	1771	14397	57650	50826	4306	1566769	1125607	985771880	10	10	10
-10.9095	7.5785	1	1	101	4	7	26	131	117	37	5355	3843	2887048	0	0	0
-10.8095	5.9785	1	1	64	2	10	54	240	207	10	3923	2933	2869396	0	0	0
-10.7095	4.3785	1	1	47	2	1	6	23	21	30	4521	3221	2881356	0	0	0
-10.6095	2.7785	1	1	26	2	6	56	270	229	19	3804	2903	2880692	0	0	0
-10.5095	1.1785	1	1	65	3	6	24	131	103	45	5688	3968	2875556	0	0	0
-10.4095	-0.4215	1	1	83	2	0	2	4	9	55	4114	2933	2880200	0	0	0
-10.3095	-2.0215	1	1	101	4	1	2	25	25	42	5052	3577	2852196	0	0	0
-10.2095	-3.6215	1	1	88	0	0	2	15	20	63	2781	1994	2871252	0	0	0
-10.0095	8.5785	1	1	79	1	0	2	8	10	61	3306	2434	2786744	0	0	0
-9.9095	6.9785	1	1	81	5	1	13	39	51	49	4382	3032	2858292	0	0	0
-9.8095	5.3785	1	1	74	4	2	33	164	155	39	3830	2779	2874024	0	0	0
-9.7095	3.7785	1	1	44	1	2	11	102	87	19	4023	2842	2869588	0	0	0
-9.6095	2.1785	1	1	38	0	1	40	212	173	24	4451	3284	2873748	0	0	0
-9.5095	0.5785	1	1	73	3	0	2	66	82	44	3534	2588	2889044	0	0	0
-9.4095	-1.0215	1	1	87	2	2	0	8	2	44	4440	3197	2872276	0	0	0
-9.3095	-2.6215	1	1	76	4	2	0	9	8	51	3961	2653	2872100	0	0	0
-9.2095	-4.2215	1	1	84	1	0	0	2	8	59	2862	2052	2877524	0	0	0
-9.0095	7.9785	1	1	52	2	2	15	91	61	44	5379	3943	2837460	0	0	0
-8.9095	6.3785	1	1	66	3	1	3	13	15	59	3016	2181	2865012	0	0	0
-8.8095	4.7785	1	1	65	1	3	2	6	9	64	4110	3025	2871624	0	0	0
-8.7095	3.1785	1	1	66	2	3	26	104	72	44	4653	3309	2877780	0	0	0
-8.6095	1.5785	1	1	84	2	1	2	19	17	44	4657	3155	2884804	0	0	0
-8.5095	-0.0215	1	1	78	3	0	3	15	18	64	4078	2865	2871684	0	0	0
-8.4095	-1.6215	1	1	91	3	1	0	9	8	56	4447	3273	2896212	0	0	0
-8.3095	-3.2215	1	1	58	3	1	1	14	22	73	3129	2306	2901308	0	0	0
-8.1095	8.9785	1	1	28	2	5	49	232	246	21	5996	4404	3360792	0	0	0
-8.0095	7.3785	1	1	52	2	2	9	27	49	45	3894	2742	2865760	0	0	0
-7.9095	5.7785	1	1	104	1	1	2	6	11	71	3096	2205	2873128	0	0	0
-7.8095	4.1785	1	1	65	2	0	0	8	9	76	5055	3535	2873764	0	0	0
-7.7095	2.5785	1	1	104	4	2	37	142	144	25	4345	3116	2892188	0	0	0
-7.6095	0.9785	1	1	95	5	12	51	215	199	20	5021	3632	2879788	0	0	0
-7.5095	-0.6215	1	1	65	2	0	3	13	13	63	2874	2173	2895040	0	0	0
-7.4095	-2.2215	1	1	72	4	0	2	43	31	52	5251	3581	2881364	0	0	0
-7.3095	-3.8215	1	1	51	1	0	5	21	14	56	2416	1770	2158449	0	0	0
-7.1095	8.3785	1	1	15	1	4	68	288	183	11	4319	3076	2816648	0	0	0
-7.0095	6.7785	1	1	53	5	1	3	16	17	41	5585	3648	2875732	0	0	0
-6.9095	5.1785	1	1	118	3	5	32	112	134	33	5610	4002	2877120	0	0	0
-6.8095	3.5785	1	1	59	2	0	0	8	8	58	3523	2555	2897364	0	0	0
-6.7095	1.9785	1	1	101	4	4	58	210	175	9	5515	3909	2876068	0	0	0
-6.6095	0.3785	1	1	119	1	2	32	127	127	45	3844	2776	2894144	0	0	0
-6.5095	-1.2215	1	1	74	0	0	2	15	14	59	4416	3017	2902036	0	0	0
-6.4095	-2.8215	1	1	87	1	2	1	14	10	70	3020	2242	2886944	0	0	0
-6.3095	-4.4215	1	1	43	1	1	3	104	101	60	3379	2050	2890928	0	0	0
-6.1095	7.7785	1	1	35	5	8	53	175	170	25	4883	3497	2884476	0	0	0
-6.0095	6.1785	1	1	70	3	2	38	152	147	13	3371	2580	2893516	0	0	0
-5.9095	4.5785	1	1	119	4	5	34	141	110	18	6107	4287	2910340	0	0	0
-5.8095	2.9785	1	1	46	1	2	20	80	63	25	4239	3004	2872916	0	0	0
-5.7095	1.3785	1	1	108	5	7	51	202	140	16	4744	3478	2897608	0	0	0
-5.6095	-0.2215	1	1	76	3	2	1	13	9	70	5095	3438	2884288	0	0	0
-5.5095	-1.8215	1	1	93	2	0	4	8	8	73	3123	2234	2868372	0	0	0
-5.4095	-3.4215	1	1	64	5	2	2	10	13	43	4736	3257	2885784	0	0	0
-5.2095	8.7785	1	1	38	1	10	65	283	250	11	3957	2873	2887816	0	0	0
-5.1095	7.1785	1	1	57	1	4	2	14	12	43	4346	2790	2889108	0	0	0
-5.0095	5.5785	1	1	148	6	5	55	254	185	16	3943	2890	2901516	0	0	0
-4.9095	3.9785	1	1	135	4	2	17	71	46	50	5731	3863	2876844	0	0	0
-4.8095	2.3785	1	1	75	5	1	41	171	164	6	4626	3428	2886716	0	0	0
-4.7095	0.7785	1	1	95	3	9	60	251	190	11	5847	4153	2887316	0	0	0
-4.6095	-0.8215	1	1	77	2	2	2	9	12	64	3243	2275	2870352	0	0	0
-4.5095	-2.4215	1	1	76	0	1	1	14	9	60	3489	2630	2883900	0	0	0
-4.4095	-4.0215	1	1	56	2	0	3	8	8	52	3261	2422	2860752	0	0	0
-4.2095	8.1785	1	1	81	1	0	10	41	37	60	3216	2366	2851476	0	0	0
-4.1095	6.5785	1	1	74	2	1	3	19	9	55	4576	3251	2909840	0	0	0
-4.0095	4.9785	1	1	69	3	1	3	7	7	53	4573	3194	2861812	0	0	0
-3.9095	3.3785	1	1	51	1	0	5	20	20	43	2639	1889	2863888	0	0	0
-3.8095	1.7785	1	1	100	0	3	51	169	178	10	4000	3007	2872916	0	0	0
-3.7095	0.1785	1	1	90	4	6	14	39	57	47	4257	3165	2858784	0	0	0
-3.6095	-1.4215	1	1	76	1	0	1	3	4	65	2878	2086	2871700	0	0	0
-3.5095	-3.0215	1	1	94	1	0	0	4	5	72	5207	3642	2870724	0	0	0
-3.3095	9.1785	1	1	16987	536	281	1354	6215	6162	12581	1394871	983050	974514140	10	10	10
-3.2095	7.5785	1	1	51	2	6	35	158	173	40	3714	2877	2882600	0	0	0
-3.1095	5.9785	1	1	77	1	2	6	26	28	63	5375	3850	2863120	0	0	0
-3.0095	4.3785	1	1	65	1	0	0	1	6	56	2439	1775	2887828	0	0	0
-2.9095	2.7785	1	1	93	2	1	2	4	9	73	3826	2747	2876616	0	0	0
-2.8095	1.1785	1	1	73	3	1	5	30	22	35	5517	3875	2871252	0	0	0
-2.7095	-0.4215	1	1	65	1	0	1	5	4	59	3638	2606	2874380	0	0	0
-2.6095	-2.0215	1	1	84	2	0	0	5	7	66	4412	2974	2858736	0	0	0
-2.5095	-3.6215	1	1	78	1	0	0	8	10	59	4681	3274	2875028	0	0	0
-2.3095	8.5785	1	1	46	4	4	50	202	132	14	4893	3337	2778456	0	0	0
-2.2095	6.9785	1	1	60	5	4	38	177	187	22	5259	3794	2866516	0	0	0
-2.1095	5.3785	1	1	75	2	1	12	46	11	44	3152	2278	2872372	0	0	0
-2.0095	3.7785	1	1	105	4	1	26	79	64	36	4617	3148	2880172	0	0	0
-1.9095	2.1785	1	1	86	2	0	6	45	23	58	4510	3147	2885028	0	0	0
-1.8095	0.5785	1	1	64	0	2	4	36	44	59	3025	2254	2889492	0	0	0
-1.7095	-1.0215	1	1	62	3	1	1	3	10	63	3246	2452	2872808	0	0	0
-1.6095	-2.6215	1	1	71	4	2	7	54	48	64	3065	2370	2875444	0	0	0
-1.5095	-4.2215	1	1	94	0	0	1	16	15	57	5041	3639	2877300	0	0	0
-1.3095	7.9785	1	1	41	4	0	39	173	179	13	4376	3199	2834920	0	0	0
-1.2095	6.3785	1	1	58	2	5	29	130	144	34	3671	2783	2859400	0	0	0
-1.1095	4.7785	1	1	92	2	1	6	50	44	25	3726	2733	2866764	0	0	0
-1.0095	3.1785	1	1	126	4	9	64	247	175	16	4056	2972	2880232	0	0	0
-0.9095	1.5785	1	1	38	4	0	0	10	12	27	5507	3778	2884692	0	0	0
-0.8095	-0.0215	1	1	67	6	16	53	282	169	16	6007	4301	2873984	0	0	0
-0.7095	-1.6215	1	1	73	3	3	10	32	36	52	4975	3420	2894448	0	0	0
-0.6095	-3.2215	1	1	85	3	1	2	32	27	61	5075	3480	2903296	0	0	0
-0.4095	8.9785	1	1	52	6	6	41	223	202	12	6921	4902	3370172	0	0	0
-0.3095	7.3785	1	1	53	2	4	56	233	195	12	3874	2906	2863636	0	0	0
-0.2095	5.7785	1	1	85	3	1	4	25	18	38	5203	3647	2873512	0	0	0
-0.1095	4.1785	1	1	106	2	7	35	169	139	17	4537	3234	2868540	0	0	0
0.01	2.5785	1	1	113	4	9	43	172	219	24	4860	3540	2892948	0	0	0
0.0905	0.9785	1	1	47	2	3	22	63	39	27	3840	2568	2879256	0	0	0
0.1905	-0.6215	1	1	59	3	9	43	236	219	9	4305	3170	2895904	0	0	0
0.2905	-2.2215	1	1	68	3	0	2	4	8	78	5098	3540	2887936	0	0	0
0.3905	-3.8215	1	1	61	0	1	4	43	47	47	5261	3801	2885608	0	0	0
0.5905	8.3785	1	1	48	1	9	44	203	163	14	4055	2837	2824624	0	0	0
0.6905	6.7785	1	1	79	1	1	5	28	24	37	4564	3038	2877208	0	0	0
0.7905	5.1785	1	1	102	3	2	12	53	30	36	5064	3383	2870292	0	0	0
0.8905	3.5785	1	1	113	6	12	57	202	194	10	3714	2708	2896516	0	0	0
0.9905	1.9785	1	1	75	1	4	30	133	105	30	4852	3349	2875112	0	0	0
1.0905	0.3785	1	1	61	1	4	41	182	153	3	4934	3457	2899972	0	0	0
1.1905	-1.2215	1	1	69	1	0	40	149	148	25	5207	3550	2891384	0	0	0
1.2905	-2.8215	1	1	77	1	0	1	3	8	62	3028	2115	2889440	0	0	0
1.3905	-4.4215	1	1	81	3	1	4	57	49	60	2840	2108	2889812	0	0	0
1.5905	7.7785	1	1	71	1	3	11	37	30	51	5634	4036	2877620	0	0	0
1.6905	6.1785	1	1	87	2	1	2	5	16	94	2464	1826	2894676	0	0	0
1.7905	4.5785	1	1	68	1	2	0	14	8	58	5064	3460	2908164	0	0	0
1.8905	2.9785	1	1	63	0	0	10	42	48	43	3141	2263	2872516	0	0	0
1.9905	1.3785	1	1	45	2	0	4	15	10	45	4037	2728	2887292	0	0	0
2.0905	-0.2215	1	1	58	4	3	40	166	149	14	5503	3800	2882900	0	0	0
2.1905	-1.8215	1	1	61	5	1	3	2	10	43	3554	2551	2878620	0	0	0
2.2905	-3.4215	1	1	60	3	2	0	28	30	55	2952	2155	2893844	0	0	0
2.4905	8.7785	1	1	83	0	0	4	20	17	65	3062	2250	2888828	0	0	0
2.5905	7.1785	1	1	91	2	1	7	15	16	59	4816	3247	2878676	0	0	0
2.6905	5.5785	1	1	86	1	0	2	6	3	52	3795	2613	2901012	0	0	0
2.7905	3.9785	1	1	86	2	0	1	6	10	51	5550	3853	2883580	0	0	0
2.8905	2.3785	1	1	59	1	0	0	2	5	56	4742	3439	2886836	0	0	0
2.9905	0.7785	1	1	50	5	2	11	68	59	37	3164	2413	2883284	0	0	0
3.0905	-0.8215	1	1	63	3	5	17	69	66	47	4974	3596	2872136	0	0	0
3.1905	-2.4215	1	1	74	1	1	8	16	26	58	3406	2558	2878140	0	0	0
3.2905	-4.0215	1	1	87	3	2	2	4	4	57	3120	2333	2864020	0	0	0
3.4905	8.1785	1	1	73	4	1	0	3	5	65	4090	2983	2847644	0	0	0
3.5905	6.5785	1	1	80	1	1	3	18	18	50	3715	2613	2900308	0	0	0
3.6905	4.9785	1	1	82	3	0	3	26	23	76	4787	3199	2861464	0	0	0
3.7905	3.3785	1	1	66	0	0	2	24	12	49	3867	2656	2874188	0	0	0
3.8905	1.7785	1	1	90	2	0	1	6	8	50	3846	2835	2876364	0	0	0
3.9905	0.1785	1	1	63	2	0	4	2	5	47	3509	2442	2869856	0	0	0
4.0905	-1.4215	1	1	62	2	4	47	224	213	26	4484	3275	2876488	0	0	0
4.1905	-3.0215	1	1	61	3	0	35	183	152	19	5777	4126	2858256	0	0	0
4.3905	9.1785	1	1	32095	662	355	1614	6565	6866	21369	1222454	878403	944583264	10	10	10
4.4905	7.5785	1	1	75	1	1	0	9	15	68	3277	2334	2883188	0	0	0
4.5905	5.9785	1	1	115	3	0	5	31	20	74	5604	3971	2864508	0	0	0
4.6905	4.3785	1	1	68	3	2	2	10	5	70	3497	2532	2889400	0	0	0
4.7905	2.7785	1	1	86	0	1	10	38	30	41	3450	2406	2878524	0	0	0
4.8905	1.1785	1	1	75	1	0	5	26	24	74	4580	3259	2871216	0	0	0
4.9905	-0.4215	1	1	62	2	0	1	10	8	80	2963	2284	2872908	0	0	0
5.0905	-2.0215	1	1	43	4	6	30	190	173	13	5786	4037	2859284	0	0	0
5.1905	-3.6215	1	1	62	1	2	40	128	128	42	3333	2444	2874720	0	0	0
5.3905	8.5785	1	1	67	2	1	0	9	5	54	3962	2756	2785580	0	0	0
5.4905	6.9785	1	1	119	1	11	54	218	182	15	4291	3117	2868700	0	0	0
5.5905	5.3785	1	1	86	3	0	4	21	19	53	2994	2127	2872852	0	0	0
5.6905	3.7785	1	1	97	2	1	25	127	109	25	2788	2055	2880468	0	0	0
5.7905	2.1785	1	1	109	1	5	51	208	163	26	4942	3497	2875692	0	0	0
5.8905	0.5785	1	1	74	5	0	0	7	10	63	3181	2326	2887700	0	0	0
5.9905	-1.0215	1	1	55	5	7	23	77	79	23	4141	2999	2865108	0	0	0
6.0905	-2.6215	1	1	41	2	9	39	198	170	6	4665	3270	2885220	0	0	0
6.1905	-4.2215	1	1	69	4	2	4	24	13	74	4444	3209	2875668	0	0	0
6.3905	7.9785	1	1	76	2	1	13	46	43	30	2851	2152	2831288	0	0	0
6.4905	6.3785	1	1	124	2	4	50	223	210	19	4186	3066	2868144	0	0	0
6.5905	4.7785	1	1	70	2	1	2	12	12	66	3716	2672	2870036	0	0	0
6.6905	3.1785	1	1	80	1	3	48	207	159	16	4252	2988	2872768	0	0	0
6.7905	1.5785	1	1	114	3	1	22	119	108	53	4978	3579	2883824	0	0	0
6.8905	-0.0215	1	1	94	3	2	2	51	35	62	3048	2153	2874352	0	0	0
6.8905	-4.5215	1	1	65	1	2	0	2	5	39	2419	1742	2140809	0	0	0